0.0899
0.1785
0.535
1.848
2.46
2.26
1.251
1.429
1.696
0.9
0.968
1.738
2.7
2.33
1.823
1.96
3.214
1.784
0.856
1.55
2.985
4.507
6.11
7.19
7.47
7.874
8.9
8.908
8.96
7.14
5.904
5.323
5.727
4.819
3.12
3.75
1.532
2.63
4.472
6.511
8.57
10.28
11.5
12.37
12.45
12.023
10.49
8.65
7.31
7.31
6.697
6.24
4.94
5.9
1.879
3.51
6.146
6.689
6.64
7.01
7.264
7.353
5.244
7.901
8.219
8.551
8.795
9.066
9.32
6.57
9.841
13.31
16.65
19.25
21.02
22.59
22.56
21.45
19.3
13.534
11.85
11.34
9.78
9.196
N/A
9.73
N/A
5
10.07
11.724
15.37
19.05
20.45
19.816
13.67
13.51
14.78
15.1
N/A
N/A
N/A
N/A
N/A
N/A
N/A
N/A
N/A
N/A
N/A
N/A
N/A
N/A
N/A
N/A
N/A
N/A
N/A
N/A